File: results/TGA/outputs_isothermal/Z01.csv
slope,intercept,r_value,p_value,std_err,C_rel,temperature,file
-0.000176434,-0.189972,-0.99902,0.0,1.05432e-07,0.0994191,235.0,SR_TGA_0094_Z01_P1-001-3_BM_iso235_ratio_4_repro_01.txt
-0.00283841,-0.0752808,-0.999615,0.0,4.16827e-06,0.450101,230.0,SR_TGA_0095_Z01_P1-001-3_BM_iso230_ratio_1_repro_01.txt
-0.0032427,-0.0470036,-0.999525,0.0,5.71354e-06,0.457003,230.0,SR_TGA_0095_Z01_P1-001-3_BM_iso230_ratio_1_repro_02.txt
-0.00020999,-0.192213,-0.998922,0.0,1.4338e-07,0.12074,230.0,SR_TGA_0095_Z01_P1-001-3_BM_iso230_ratio_1_repro_03.txt
-0.000577668,-0.15306,-0.999091,0.0,6.01132e-07,0.201269,230.0,SR_TGA_0095_Z01_P1-001-3_BM_iso230_ratio_2_repro_01.txt
-0.000863206,-0.11145,-0.999424,0.0,8.67494e-07,0.236516,230.0,SR_TGA_0095_Z01_P1-001-3_BM_iso230_ratio_2_repro_02.txt
-0.000242125,-0.214357,-0.99696,0.0,3.01943e-07,0.145532,230.0,SR_TGA_0095_Z01_P1-001-3_BM_iso230_ratio_3_repro_01.txt
-0.000248766,-0.224912,-0.996427,0.0,3.41429e-07,0.16153,230.0,SR_TGA_0095_Z01_P1-001-3_BM_iso230_ratio_3_repro_02.txt
-0.00402391,-0.045723,-0.999761,0.0,5.56256e-06,0.506858,240.0,SR_TGA_0095_Z01_P1-001-3_BM_iso240_ratio_1_repro_01.txt
-0.00540353,-0.0532761,-0.999552,7.70276e-281,1.19589e-05,0.450863,240.0,SR_TGA_0095_Z01_P1-001-3_BM_iso240_ratio_1_repro_02.txt
-0.000233316,-0.197826,-0.998936,0.0,1.67503e-07,0.109389,240.0,SR_TGA_0095_Z01_P1-001-3_BM_iso240_ratio_1_repro_03.txt
-0.00105231,-0.156632,-0.999024,0.0,1.53301e-06,0.199011,240.0,SR_TGA_0095_Z01_P1-001-3_BM_iso240_ratio_2_repro_01.txt
-0.00129778,-0.149178,-0.999021,0.0,2.10281e-06,0.225441,240.0,SR_TGA_0095_Z01_P1-001-3_BM_iso240_ratio_2_repro_02.txt
-0.000378468,-0.211331,-0.99762,0.0,5.21491e-07,0.134015,240.0,SR_TGA_0095_Z01_P1-001-3_BM_iso240_ratio_3_repro_01.txt
-0.000415044,-0.210695,-0.997604,0.0,6.00845e-07,0.14501,240.0,SR_TGA_0095_Z01_P1-001-3_BM_iso240_ratio_3_repro_02.txt
-0.000492254,-0.220653,-0.997989,0.0,7.1174e-07,0.171796,240.0,SR_TGA_0095_Z01_P1-001-3_BM_iso240_ratio_4_repro_01.txt
-0.000582478,-0.217747,-0.998188,0.0,8.68874e-07,0.176419,240.0,SR_TGA_0095_Z01_P1-001-3_BM_iso240_ratio_4_repro_02.txt
-0.000601747,-0.20344,-0.998465,0.0,8.36588e-07,0.171289,240.0,SR_TGA_0095_Z01_P1-001-3_BM_iso240_ratio_4_repro_03.txt
-0.00034357,-0.20017,-0.998922,0.0,3.01308e-07,0.117716,245.0,SR_TGA_0095_Z01_P1-001-3_BM_iso245_ratio_1_repro_01.txt
-0.00484,-0.061175,-0.999525,8.3884e-312,1.04195e-05,0.446218,250.0,SR_TGA_0095_Z01_P1-001-3_BM_iso250_ratio_1_repro_01.txt
-0.00498927,-0.0627573,-0.99962,2.75053e-312,9.75922e-06,0.428813,250.0,SR_TGA_0095_Z01_P1-001-3_BM_iso250_ratio_1_repro_02.txt
-0.000346829,-0.190348,-0.999117,0.0,2.76182e-07,0.103436,250.0,SR_TGA_0095_Z01_P1-001-3_BM_iso250_ratio_1_repro_03.txt
-0.00207768,-0.154867,-0.998749,0.0,4.83007e-06,0.232726,250.0,SR_TGA_0095_Z01_P1-001-3_BM_iso250_ratio_2_repro_01.txt
-0.00186024,-0.151638,-0.998775,0.0,4.04548e-06,0.216183,250.0,SR_TGA_0095_Z01_P1-001-3_BM_iso250_ratio_2_repro_02.txt
-0.000808654,-0.186461,-0.998523,0.0,1.27563e-06,0.157,250.0,SR_TGA_0095_Z01_P1-001-3_BM_iso250_ratio_3_repro_01.txt
-0.000710911,-0.206884,-0.998101,0.0,1.19856e-06,0.155019,250.0,SR_TGA_0095_Z01_P1-001-3_BM_iso250_ratio_3_repro_02.txt
-0.000974051,-0.231583,-0.998074,0.0,1.94989e-06,0.171529,250.0,SR_TGA_0095_Z01_P1-001-3_BM_iso250_ratio_4_repro_01.txt
-0.000960843,-0.247578,-0.997427,0.0,2.22445e-06,0.187288,250.0,SR_TGA_0095_Z01_P1-001-3_BM_iso250_ratio_4_repro_02.txt
-0.00124347,-0.230512,-0.997927,0.0,2.92229e-06,0.192568,250.0,SR_TGA_0095_Z01_P1-001-3_BM_iso250_ratio_4_repro_03.txt