File: results/TGA/outputs_isothermal/Z02.csv
slope,intercept,r_value,p_value,std_err,C_rel,temperature,file
-0.00207468,-0.00158036,-0.998799,0.0,4.60694e-06,0.475681,230.0,SR_TGA_0094_Z02_P1-001-3_BM_iso230_ratio_1_repro_02.txt
-0.00205542,0.00518924,-0.998493,0.0,5.09337e-06,0.520238,230.0,SR_TGA_0094_Z02_P1-001-3_BM_iso230_ratio_1_repro_03.txt
-0.000192357,-0.165182,-0.999281,0.0,1.02194e-07,0.131296,230.0,SR_TGA_0094_Z02_P1-001-3_BM_iso230_ratio_1_repro_04.txt
-0.00172748,-0.020943,-0.9992,0.0,2.85589e-06,0.445915,230.0,SR_TGA_0094_Z02_P1-001-3_BM_iso230_ratio_2_repro_01.txt
-0.000533702,-0.101581,-0.9991,0.0,5.26955e-07,0.249113,230.0,SR_TGA_0094_Z02_P1-001-3_BM_iso230_ratio_2_repro_02.txt
-0.000753684,-0.0653473,-0.998973,0.0,9.39318e-07,0.254975,230.0,SR_TGA_0094_Z02_P1-001-3_BM_iso230_ratio_2_repro_03.txt
-0.000596399,-0.0782864,-0.999106,0.0,6.17704e-07,0.235478,230.0,SR_TGA_0094_Z02_P1-001-3_BM_iso230_ratio_3_repro_01.txt
-0.00022019,-0.0945243,-0.999324,0.0,1.20539e-07,0.156194,230.0,SR_TGA_0094_Z02_P1-001-3_BM_iso230_ratio_3_repro_02.txt
-0.000257198,-0.0909307,-0.99955,0.0,1.2393e-07,0.159492,230.0,SR_TGA_0094_Z02_P1-001-3_BM_iso230_ratio_3_repro_03.txt
-0.000225398,-0.138772,-0.999588,0.0,9.76453e-08,0.106256,235.0,SR_TGA_0094_Z02_P1-001-3_BM_iso235_ratio_1_repro_01.txt
-0.00343531,-0.0179394,-0.999564,0.0,5.9153e-06,0.463285,240.0,SR_TGA_0094_Z02_P1-001-3_BM_iso240_ratio_1_repro_01.txt
-0.00252893,-0.049639,-0.999537,0.0,3.86762e-06,0.453525,240.0,SR_TGA_0094_Z02_P1-001-3_BM_iso240_ratio_1_repro_02.txt
-0.00222067,0.0041182,-0.998864,0.0,4.95588e-06,0.463681,240.0,SR_TGA_0094_Z02_P1-001-3_BM_iso240_ratio_1_repro_03.txt
-0.000157503,-0.133629,-0.999342,0.0,7.22529e-08,0.0899798,240.0,SR_TGA_0094_Z02_P1-001-3_BM_iso240_ratio_1_repro_04.txt
-0.00107158,-0.104735,-0.999371,0.0,1.25273e-06,0.259626,240.0,SR_TGA_0094_Z02_P1-001-3_BM_iso240_ratio_2_repro_01.txt
-0.00127537,-0.0893685,-0.999354,0.0,1.64595e-06,0.266677,240.0,SR_TGA_0094_Z02_P1-001-3_BM_iso240_ratio_2_repro_02.txt
-0.00105397,-0.0990446,-0.999272,0.0,1.31515e-06,0.254965,240.0,SR_TGA_0094_Z02_P1-001-3_BM_iso240_ratio_2_repro_03.txt
-0.000519722,-0.106831,-0.999523,0.0,3.67472e-07,0.171588,240.0,SR_TGA_0094_Z02_P1-001-3_BM_iso240_ratio_3_repro_01.txt
-0.000482397,-0.120437,-0.999523,0.0,3.29257e-07,0.169967,240.0,SR_TGA_0094_Z02_P1-001-3_BM_iso240_ratio_3_repro_02.txt
-0.00045371,-0.101826,-0.999503,0.0,3.0584e-07,0.157509,240.0,SR_TGA_0094_Z02_P1-001-3_BM_iso240_ratio_3_repro_03.txt
-0.00034757,-0.145905,-0.999508,0.0,2.04826e-07,0.119156,245.0,SR_TGA_0094_Z02_P1-001-3_BM_iso245_ratio_1_repro_01.txt
-0.0050382,-0.0129695,-0.999749,0.0,8.00883e-06,0.48779,250.0,SR_TGA_0094_Z02_P1-001-3_BM_iso250_ratio_1_repro_01.txt
-0.0053029,-0.0479001,-0.999675,5.48277e-300,9.88573e-06,0.45711,250.0,SR_TGA_0094_Z02_P1-001-3_BM_iso250_ratio_1_repro_02.txt
-0.00314824,-0.00402579,-0.999594,0.0,5.01348e-06,0.471093,250.0,SR_TGA_0094_Z02_P1-001-3_BM_iso250_ratio_1_repro_03.txt
-0.000518049,-0.146734,-0.9995,0.0,3.75955e-07,0.13515,250.0,SR_TGA_0094_Z02_P1-001-3_BM_iso250_ratio_1_repro_04.txt
-0.00147788,-0.121717,-0.999391,0.0,2.0047e-06,0.229274,250.0,SR_TGA_0094_Z02_P1-001-3_BM_iso250_ratio_2_repro_01.txt
-0.00159289,-0.119245,-0.999391,0.0,2.24151e-06,0.243153,250.0,SR_TGA_0094_Z02_P1-001-3_BM_iso250_ratio_2_repro_02.txt
-0.00134332,-0.124592,-0.999331,0.0,1.82246e-06,0.239878,250.0,SR_TGA_0094_Z02_P1-001-3_BM_iso250_ratio_2_repro_03.txt
-0.000679534,-0.132496,-0.999496,0.0,5.66994e-07,0.156148,250.0,SR_TGA_0094_Z02_P1-001-3_BM_iso250_ratio_3_repro_01.txt
-0.00055279,-0.137798,-0.999474,0.0,4.2514e-07,0.148617,250.0,SR_TGA_0094_Z02_P1-001-3_BM_iso250_ratio_3_repro_02.txt
-0.000650528,-0.146415,-0.999363,0.0,5.99328e-07,0.166524,250.0,SR_TGA_0094_Z02_P1-001-3_BM_iso250_ratio_3_repro_03.txt