File: results/TGA/outputs_isothermal/Z03.csv
slope,intercept,r_value,p_value,std_err,C_rel,temperature,file
-0.00112664,-0.138445,-0.999302,0.0,1.42642e-06,0.230184,230.0,SR_TGA_0090_Z03_P1-001-3_BM_iso230_ratio_1_repro_01.txt
-0.00106252,-0.133905,-0.999293,0.0,1.31464e-06,0.228602,230.0,SR_TGA_0090_Z03_P1-001-3_BM_iso230_ratio_1_repro_02.txt
-0.000786436,-0.138776,-0.999231,0.0,8.74585e-07,0.227738,230.0,SR_TGA_0090_Z03_P1-001-3_BM_iso230_ratio_1_repro_03.txt
-0.0044496,-0.0304846,-0.999777,0.0,6.26314e-06,0.496714,230.0,SR_TGA_0090_Z03_P1-001-3_BM_iso230_ratio_2_repro_01.txt
-0.00265332,-0.0379706,-0.999854,0.0,2.315e-06,0.470961,230.0,SR_TGA_0090_Z03_P1-001-3_BM_iso230_ratio_2_repro_02.txt
-0.00403972,-0.0337719,-0.999674,0.0,6.56486e-06,0.477166,230.0,SR_TGA_0090_Z03_P1-001-3_BM_iso230_ratio_2_repro_03.txt
-0.000185588,-0.174959,-0.999028,0.0,1.1289e-07,0.0921742,230.0,SR_TGA_0090_Z03_P1-001-3_BM_iso230_ratio_3_repro_01.txt
-0.000326062,-0.174745,-0.99885,0.0,2.86029e-07,0.121745,230.0,SR_TGA_0090_Z03_P1-001-3_BM_iso230_ratio_3_repro_02.txt
-0.000270555,-0.167228,-0.999065,0.0,1.94479e-07,0.109184,230.0,SR_TGA_0090_Z03_P1-001-3_BM_iso230_ratio_3_repro_03.txt
-0.00160886,-0.125017,-0.999135,0.0,2.71769e-06,0.226417,240.0,SR_TGA_0091_Z03_P1-001-3_BM_iso240_ratio_1_repro_01.txt
-0.00215219,-0.0972167,-0.999428,0.0,3.40667e-06,0.256128,240.0,SR_TGA_0091_Z03_P1-001-3_BM_iso240_ratio_1_repro_02.txt
-0.0017619,-0.123256,-0.999268,0.0,2.86111e-06,0.231225,240.0,SR_TGA_0091_Z03_P1-001-3_BM_iso240_ratio_1_repro_03.txt
-0.00695324,-0.0204281,-0.999615,1.4899e-224,1.61321e-05,0.493063,240.0,SR_TGA_0091_Z03_P1-001-3_BM_iso240_ratio_2_repro_01.txt
-0.00339299,-0.0484112,-0.999807,0.0,3.87762e-06,0.447755,240.0,SR_TGA_0091_Z03_P1-001-3_BM_iso240_ratio_2_repro_02.txt
-0.00446506,-0.093447,-0.998708,2.26414e-285,1.53535e-05,0.465017,240.0,SR_TGA_0091_Z03_P1-001-3_BM_iso240_ratio_2_repro_03.txt
-0.000339809,-0.161481,-0.999252,0.0,2.45075e-07,0.105896,240.0,SR_TGA_0091_Z03_P1-001-3_BM_iso240_ratio_3_repro_01.txt
-0.000314505,-0.177107,-0.999041,0.0,2.48025e-07,0.113989,240.0,SR_TGA_0091_Z03_P1-001-3_BM_iso240_ratio_3_repro_02.txt
-0.000384555,-0.166087,-0.999145,0.0,3.16658e-07,0.130243,240.0,SR_TGA_0091_Z03_P1-001-3_BM_iso240_ratio_3_repro_03.txt
-0.000822736,-0.218714,-0.998116,0.0,1.48868e-06,0.182263,240.0,SR_TGA_0092_Z03_P1-001-3_BM_iso240_ratio_4_repro_01.txt
-0.000986021,-0.195932,-0.998681,0.0,1.62536e-06,0.189931,240.0,SR_TGA_0092_Z03_P1-001-3_BM_iso240_ratio_4_repro_02.txt
-0.000790475,-0.197564,-0.998669,0.0,1.1706e-06,0.173407,240.0,SR_TGA_0092_Z03_P1-001-3_BM_iso240_ratio_4_repro_03.txt
-0.012232,0.0350223,-0.999567,2.35393e-127,3.97567e-05,0.521615,250.0,SR_TGA_0092_Z03_P1-001-3_BM_iso250_ratio_1_repro_01.txt
-0.0072813,-0.0256218,-0.9995,2.24746e-210,1.95468e-05,0.464102,250.0,SR_TGA_0092_Z03_P1-001-3_BM_iso250_ratio_1_repro_02.txt
-0.00808836,-0.0455387,-0.999017,5.77712e-167,3.2498e-05,0.473864,250.0,SR_TGA_0092_Z03_P1-001-3_BM_iso250_ratio_1_repro_03.txt
-0.00210304,-0.131036,-0.999084,0.0,4.19066e-06,0.226539,250.0,SR_TGA_0092_Z03_P1-001-3_BM_iso250_ratio_2_repro_01.txt
-0.00261594,-0.108377,-0.999293,0.0,5.08896e-06,0.238701,250.0,SR_TGA_0092_Z03_P1-001-3_BM_iso250_ratio_2_repro_02.txt
-0.00193765,-0.118919,-0.999137,0.0,3.59546e-06,0.221119,250.0,SR_TGA_0092_Z03_P1-001-3_BM_iso250_ratio_2_repro_03.txt
-0.000475531,-0.1262,-0.999233,0.0,4.10514e-07,0.102501,250.0,SR_TGA_0092_Z03_P1-001-3_BM_iso250_ratio_3_repro_01.txt
-0.000450791,-0.125913,-0.999202,0.0,3.86326e-07,0.106412,250.0,SR_TGA_0092_Z03_P1-001-3_BM_iso250_ratio_3_repro_02.txt
-0.000307488,-0.134784,-0.999043,0.0,2.3911e-07,0.102548,250.0,SR_TGA_0092_Z03_P1-001-3_BM_iso250_ratio_3_repro_03.txt
-0.00156172,-0.205847,-0.99816,0.0,3.85108e-06,0.190309,250.0,SR_TGA_0092_Z03_P1-001-3_BM_iso250_ratio_4_repro_01.txt
-0.00110159,-0.230695,-0.997798,0.0,2.50702e-06,0.17421,250.0,SR_TGA_0092_Z03_P1-001-3_BM_iso250_ratio_4_repro_02.txt
-0.00116622,-0.228848,-0.997923,0.0,2.65526e-06,0.17742,250.0,SR_TGA_0092_Z03_P1-001-3_BM_iso250_ratio_4_repro_03.txt