File: results/TGA/outputs_isothermal/Z04.csv
slope,intercept,r_value,p_value,std_err,C_rel,temperature,file
-0.00113651,-0.144554,-0.998641,0.0,2.00744e-06,0.392004,230.0,SR_TGA_0093_Z04_P1-001-3_BM_iso230_ratio_1_repro_01.txt
-0.00262404,-0.170005,-0.996553,0.0,1.13877e-05,0.441995,230.0,SR_TGA_0093_Z04_P1-001-3_BM_iso230_ratio_1_repro_02.txt
-0.00123836,-0.181056,-0.997579,0.0,3.0791e-06,0.400723,230.0,SR_TGA_0093_Z04_P1-001-3_BM_iso230_ratio_1_repro_03.txt
-0.000306544,-0.283238,-0.99465,0.0,5.81848e-07,0.214701,230.0,SR_TGA_0093_Z04_P1-001-3_BM_iso230_ratio_2_repro_01.txt
-0.00036206,-0.271265,-0.99534,0.0,6.93952e-07,0.216016,230.0,SR_TGA_0093_Z04_P1-001-3_BM_iso230_ratio_2_repro_02.txt
-0.000277728,-0.280708,-0.994871,0.0,4.90872e-07,0.207875,230.0,SR_TGA_0093_Z04_P1-001-3_BM_iso230_ratio_2_repro_03.txt
-7.73418e-05,-0.203961,-0.99472,0.0,9.63252e-08,0.110396,230.0,SR_TGA_0093_Z04_P1-001-3_BM_iso230_ratio_3_repro_01.txt
-7.11238e-05,-0.222518,-0.992248,0.0,1.07089e-07,0.122593,230.0,SR_TGA_0093_Z04_P1-001-3_BM_iso230_ratio_3_repro_02.txt
-9.21887e-05,-0.256906,-0.993464,0.0,1.26224e-07,0.141418,230.0,SR_TGA_0093_Z04_P1-001-3_BM_iso230_ratio_4_repro_01.txt
-0.000124006,-0.269677,-0.996239,0.0,1.28154e-07,0.147337,230.0,SR_TGA_0093_Z04_P1-001-3_BM_iso230_ratio_4_repro_02.txt
-4.73201e-05,-0.20612,-0.988757,0.0,8.6366e-08,0.1071,230.0,SR_TGA_0093_Z04_P1-001-3_BM_iso230_ratio_4_repro_03.txt
-6.638e-05,-0.198434,-0.995051,0.0,7.9889e-08,0.0942139,235.0,SR_TGA_0093_Z04_P1-001-3_BM_iso235_ratio_1_repro_01.txt
-0.000127149,-0.271621,-0.997146,0.0,1.14255e-07,0.143131,235.0,SR_TGA_0093_Z04_P1-001-3_BM_iso235_ratio_2_repro_01.txt
-0.000253492,-0.301884,-0.994456,0.0,4.48616e-07,0.211278,235.0,SR_TGA_0093_Z04_P1-001-3_BM_iso235_ratio_3_repro_01.txt
-0.00229432,-0.292438,-0.992481,0.0,1.4402e-05,0.394482,235.0,SR_TGA_0093_Z04_P1-001-3_BM_iso235_ratio_4_repro_01.txt
-0.00261918,-0.215457,-0.994184,0.0,1.4954e-05,0.43668,240.0,SR_TGA_0093_Z04_P1-001-3_BM_iso240_ratio_1_repro_01.txt
-0.0016935,-0.185962,-0.998089,0.0,4.37645e-06,0.420485,240.0,SR_TGA_0093_Z04_P1-001-3_BM_iso240_ratio_1_repro_02.txt
-0.0035102,-0.169706,-0.996227,7.72803e-292,1.85082e-05,0.438756,240.0,SR_TGA_0093_Z04_P1-001-3_BM_iso240_ratio_1_repro_03.txt
-0.000367319,-0.287423,-0.994908,0.0,7.47329e-07,0.203269,240.0,SR_TGA_0093_Z04_P1-001-3_BM_iso240_ratio_2_repro_01.txt
-0.00041256,-0.285264,-0.994862,0.0,8.93229e-07,0.216253,240.0,SR_TGA_0093_Z04_P1-001-3_BM_iso240_ratio_2_repro_02.txt
-0.000504104,-0.278995,-0.9949,0.0,1.19994e-06,0.227614,240.0,SR_TGA_0093_Z04_P1-001-3_BM_iso240_ratio_2_repro_03.txt
-0.00014736,-0.257338,-0.997228,0.0,1.38266e-07,0.139579,240.0,SR_TGA_0093_Z04_P1-001-3_BM_iso240_ratio_3_repro_01.txt
-0.000173772,-0.254401,-0.997413,0.0,1.70967e-07,0.146796,240.0,SR_TGA_0093_Z04_P1-001-3_BM_iso240_ratio_3_repro_02.txt
-0.000137123,-0.265256,-0.997087,0.0,1.27601e-07,0.139028,240.0,SR_TGA_0093_Z04_P1-001-3_BM_iso240_ratio_3_repro_03.txt
-0.00018884,-0.263497,-0.997612,0.0,1.86577e-07,0.146804,240.0,SR_TGA_0093_Z04_P1-001-3_BM_iso240_ratio_4_repro_03.txt
-0.000142087,-0.24933,-0.998276,0.0,1.02873e-07,0.112075,245.0,SR_TGA_0093_Z04_P1-001-3_BM_iso245_ratio_1_repro_01.txt
-0.000177455,-0.273118,-0.997403,0.0,1.77847e-07,0.140472,245.0,SR_TGA_0093_Z04_P1-001-3_BM_iso245_ratio_2_repro_01.txt
-0.00353623,-0.295102,-0.988494,4.34618e-207,3.4223e-05,0.399374,245.0,SR_TGA_0093_Z04_P1-001-3_BM_iso245_ratio_3_repro_01.txt
-0.000625838,-0.312958,-0.995171,0.0,1.63802e-06,0.216598,245.0,SR_TGA_0093_Z04_P1-001-3_BM_iso245_ratio_4_repro_01.txt
-0.00549726,-0.177268,-0.994958,1.00849e-174,4.21295e-05,0.419638,250.0,SR_TGA_0093_Z04_P1-001-3_BM_iso250_ratio_1_repro_01.txt
-0.00535143,-0.200416,-0.991291,1.15341e-158,5.3287e-05,0.428006,250.0,SR_TGA_0093_Z04_P1-001-3_BM_iso250_ratio_1_repro_02.txt
-0.00358919,-0.220087,-0.99392,4.02849e-252,2.46106e-05,0.430363,250.0,SR_TGA_0093_Z04_P1-001-3_BM_iso250_ratio_1_repro_03.txt
-0.000782794,-0.283734,-0.994687,0.0,2.38085e-06,0.224492,250.0,SR_TGA_0093_Z04_P1-001-3_BM_iso250_ratio_2_repro_01.txt
-0.00106554,-0.274076,-0.994617,0.0,3.7987e-06,0.245705,250.0,SR_TGA_0093_Z04_P1-001-3_BM_iso250_ratio_2_repro_02.txt
-0.000618609,-0.287817,-0.99471,0.0,1.66911e-06,0.208886,250.0,SR_TGA_0093_Z04_P1-001-3_BM_iso250_ratio_2_repro_03.txt
-0.000207113,-0.237602,-0.998144,0.0,1.8747e-07,0.124653,250.0,SR_TGA_0093_Z04_P1-001-3_BM_iso250_ratio_3_repro_01.txt
-0.00017047,-0.247423,-0.998006,0.0,1.45669e-07,0.123919,250.0,SR_TGA_0093_Z04_P1-001-3_BM_iso250_ratio_3_repro_02.txt
-0.000329717,-0.255366,-0.997317,0.0,4.56536e-07,0.158932,250.0,SR_TGA_0093_Z04_P1-001-3_BM_iso250_ratio_3_repro_03.txt
-0.000456718,-0.319387,-0.995209,0.0,1.01995e-06,0.17751,250.0,SR_TGA_0093_Z04_P1-001-3_BM_iso250_ratio_4_repro_01.txt
-0.000377784,-0.287079,-0.996933,0.0,6.05492e-07,0.156884,250.0,SR_TGA_0093_Z04_P1-001-3_BM_iso250_ratio_4_repro_02.txt
-0.000450743,-0.298137,-0.99636,0.0,8.64067e-07,0.169461,250.0,SR_TGA_0093_Z04_P1-001-3_BM_iso250_ratio_4_repro_03.txt