File: results/TGA/outputs_isothermal/Z09.csv
slope,intercept,r_value,p_value,std_err,C_rel,temperature,file
-0.00148394,-0.0593033,-0.999561,0.0,1.68117e-06,0.428891,235.0,SR_TGA_0119_Z09_P1-001-3_BM_iso235_ratio_1_repro_01.txt
-0.00198659,-0.0771087,-0.999784,0.0,1.83378e-06,0.426758,235.0,SR_TGA_0119_Z09_P1-001-3_BM_iso235_ratio_1_repro_02.txt
-0.000862261,-0.094247,-0.999586,0.0,7.2815e-07,0.218146,235.0,SR_TGA_0119_Z09_P1-001-3_BM_iso235_ratio_2_repro_01.txt
-0.000715125,-0.122011,-0.999616,0.0,5.31807e-07,0.190343,235.0,SR_TGA_0119_Z09_P1-001-3_BM_iso235_ratio_2_repro_02.txt
-0.00044709,-0.139198,-0.999564,0.0,2.80372e-07,0.153661,235.0,SR_TGA_0119_Z09_P1-001-3_BM_iso235_ratio_3_repro_01.txt
-0.000220273,-0.137676,-0.999555,0.0,9.80653e-08,0.0835513,235.0,SR_TGA_0119_Z09_P1-001-3_BM_iso235_ratio_3_repro_02.txt
-0.00174223,-0.101692,-0.999401,0.0,2.5293e-06,0.408683,240.0,SR_TGA_0119_Z09_P1-001-3_BM_iso240_ratio_1_repro_01.txt
-0.00163317,-0.0741699,-0.999669,0.0,1.69476e-06,0.391495,240.0,SR_TGA_0119_Z09_P1-001-3_BM_iso240_ratio_1_repro_02.txt
-0.000769292,-0.132881,-0.999519,0.0,6.66526e-07,0.183477,240.0,SR_TGA_0119_Z09_P1-001-3_BM_iso240_ratio_2_repro_01.txt
-0.000992536,-0.0822053,-0.999489,0.0,9.99473e-07,0.203132,240.0,SR_TGA_0119_Z09_P1-001-3_BM_iso240_ratio_2_repro_02.txt
-0.000379394,-0.128799,-0.999556,0.0,2.21411e-07,0.127571,240.0,SR_TGA_0119_Z09_P1-001-3_BM_iso240_ratio_3_repro_01.txt
-0.000222943,-0.119379,-0.999534,0.0,1.0202e-07,0.0621213,240.0,SR_TGA_0119_Z09_P1-001-3_BM_iso240_ratio_3_repro_02.txt
-0.00244198,-0.131642,-0.999179,0.0,4.96853e-06,0.427788,245.0,SR_TGA_0119_Z09_P1-001-3_BM_iso245_ratio_1_repro_01.txt
-0.00199197,-0.0539168,-0.999443,0.0,2.95447e-06,0.453653,245.0,SR_TGA_0119_Z09_P1-001-3_BM_iso245_ratio_1_repro_02.txt
-0.000791447,-0.139188,-0.999497,0.0,7.12008e-07,0.172687,245.0,SR_TGA_0119_Z09_P1-001-3_BM_iso245_ratio_2_repro_01.txt
-0.0012732,-0.108856,-0.999488,0.0,1.45973e-06,0.209292,245.0,SR_TGA_0119_Z09_P1-001-3_BM_iso245_ratio_2_repro_02.txt
-0.000604054,-0.115284,-0.999521,0.0,4.61616e-07,0.141581,245.0,SR_TGA_0119_Z09_P1-001-3_BM_iso245_ratio_3_repro_01.txt
-0.00130965,-0.112976,-0.999423,0.0,1.61939e-06,0.174129,245.0,SR_TGA_0119_Z09_P1-001-3_BM_iso245_ratio_3_repro_02.txt
-0.00295398,-0.0750408,-0.999549,0.0,4.82893e-06,0.410783,250.0,SR_TGA_0119_Z09_P1-001-3_BM_iso250_ratio_1_repro_01.txt
-0.00219044,-0.053388,-0.999206,0.0,4.0712e-06,0.405795,250.0,SR_TGA_0119_Z09_P1-001-3_BM_iso250_ratio_1_repro_02.txt
-0.0013429,-0.110718,-0.999281,0.0,1.87975e-06,0.193892,250.0,SR_TGA_0119_Z09_P1-001-3_BM_iso250_ratio_2_repro_01.txt
-0.00144031,-0.114752,-0.999364,0.0,1.96731e-06,0.190811,250.0,SR_TGA_0119_Z09_P1-001-3_BM_iso250_ratio_2_repro_02.txt
-0.000553506,-0.113356,-0.99933,0.0,4.79403e-07,0.123776,250.0,SR_TGA_0119_Z09_P1-001-3_BM_iso250_ratio_3_repro_01.txt
-0.00058774,-0.141877,-0.999463,0.0,4.71173e-07,0.112819,250.0,SR_TGA_0119_Z09_P1-001-3_BM_iso250_ratio_3_repro_02.txt
-0.00628738,-0.11348,-0.998227,1.29349e-190,3.02119e-05,0.459736,255.0,SR_TGA_0119_Z09_P1-001-3_BM_iso255_ratio_1_repro_01.txt
-0.00260294,-0.0845105,-0.999394,0.0,4.63727e-06,0.397795,255.0,SR_TGA_0119_Z09_P1-001-3_BM_iso255_ratio_1_repro_02.txt
-0.00188082,-0.100643,-0.998729,0.0,4.15095e-06,0.238407,255.0,SR_TGA_0119_Z09_P1-001-3_BM_iso255_ratio_2_repro_01.txt
-0.00188051,-0.118982,-0.999172,0.0,3.35716e-06,0.205914,255.0,SR_TGA_0119_Z09_P1-001-3_BM_iso255_ratio_2_repro_02.txt
-0.000807429,-0.101926,-0.999178,0.0,9.35456e-07,0.133446,255.0,SR_TGA_0119_Z09_P1-001-3_BM_iso255_ratio_3_repro_01.txt
-0.000712766,-0.104307,-0.99908,0.0,8.21057e-07,0.107649,255.0,SR_TGA_0119_Z09_P1-001-3_BM_iso255_ratio_3_repro_02.txt