File: results/TGA/outputs_isothermal/Z11.csv
slope,intercept,r_value,p_value,std_err,C_rel,temperature,file
-7.10969e-05,-0.229738,-0.990179,0.0,1.20379e-07,0.138473,235.0,SR_TGA_0120_Z11_P1-001-3_BM_iso235_ratio_1_repro_01.txt
-0.000648466,-0.19462,-0.99833,0.0,9.70139e-07,0.37306,235.0,SR_TGA_0120_Z11_P1-001-3_BM_iso235_ratio_1_repro_02.txt
-0.000578291,-0.218052,-0.99848,0.0,7.84749e-07,0.390016,235.0,SR_TGA_0120_Z11_P1-001-3_BM_iso235_ratio_2_repro_01.txt
-0.000149693,-0.276218,-0.996335,0.0,1.63219e-07,0.189322,235.0,SR_TGA_0120_Z11_P1-001-3_BM_iso235_ratio_2_repro_02.txt
-0.000102898,-0.263989,-0.993216,0.0,1.43723e-07,0.183264,235.0,SR_TGA_0120_Z11_P1-001-3_BM_iso235_ratio_3_repro_01.txt
-5.49741e-05,-0.190141,-0.991918,0.0,8.54849e-08,0.0965178,235.0,SR_TGA_0120_Z11_P1-001-3_BM_iso235_ratio_3_repro_02.txt
-6.98666e-05,-0.218132,-0.991556,0.0,1.09859e-07,0.116995,240.0,SR_TGA_0120_Z11_P1-001-3_BM_iso240_ratio_1_repro_01.txt
-0.000736796,-0.286561,-0.994833,0.0,2.14053e-06,0.373499,240.0,SR_TGA_0120_Z11_P1-001-3_BM_iso240_ratio_1_repro_02.txt
-0.000649933,-0.199527,-0.998686,0.0,8.66613e-07,0.388639,240.0,SR_TGA_0120_Z11_P1-001-3_BM_iso240_ratio_2_repro_01.txt
-0.000224323,-0.274073,-0.996683,0.0,2.84745e-07,0.195462,240.0,SR_TGA_0120_Z11_P1-001-3_BM_iso240_ratio_2_repro_02.txt
-0.000270957,-0.259045,-0.997051,0.0,3.55031e-07,0.211245,240.0,SR_TGA_0120_Z11_P1-001-3_BM_iso240_ratio_3_repro_01.txt
-7.52847e-05,-0.2235,-0.99277,0.0,1.09054e-07,0.115509,240.0,SR_TGA_0120_Z11_P1-001-3_BM_iso240_ratio_3_repro_02.txt
-5.9695e-05,-0.202955,-0.991942,0.0,9.20257e-08,0.0999913,245.0,SR_TGA_0120_Z11_P1-001-3_BM_iso245_ratio1_repro_01.txt
-0.000736809,-0.276405,-0.99636,0.0,1.7879e-06,0.390732,245.0,SR_TGA_0120_Z11_P1-001-3_BM_iso245_ratio1_repro_02.txt
-0.00208057,-0.235305,-0.99659,0.0,8.12977e-06,0.437299,245.0,SR_TGA_0120_Z11_P1-001-3_BM_iso245_ratio2_repro_01.txt
-0.000377237,-0.264594,-0.997061,0.0,5.85056e-07,0.224099,245.0,SR_TGA_0120_Z11_P1-001-3_BM_iso245_ratio2_repro_02.txt
-0.000210066,-0.271966,-0.996576,0.0,2.62383e-07,0.193918,245.0,SR_TGA_0120_Z11_P1-001-3_BM_iso245_ratio3_repro_01.txt
-7.40125e-05,-0.212936,-0.993585,0.0,1.01199e-07,0.0971457,245.0,SR_TGA_0120_Z11_P1-001-3_BM_iso245_ratio3_repro_02.txt
-0.00113343,-0.247154,-0.997248,0.0,2.93904e-06,0.385815,250.0,SR_TGA_0120_Z11_P1-001-3_BM_iso250new_ratio1_repro_01.txt
-0.00113751,-0.331652,-0.991758,0.0,5.31994e-06,0.376863,250.0,SR_TGA_0120_Z11_P1-001-3_BM_iso250new_ratio1_repro_02.txt
-0.000209664,-0.263998,-0.997138,0.0,2.37788e-07,0.15954,250.0,SR_TGA_0120_Z11_P1-001-3_BM_iso250new_ratio2_repro_01.txt
-0.000379845,-0.274947,-0.997092,0.0,5.88843e-07,0.19853,250.0,SR_TGA_0120_Z11_P1-001-3_BM_iso250new_ratio2_repro_02.txt
-0.000138806,-0.257285,-0.997383,0.0,1.2194e-07,0.130744,250.0,SR_TGA_0120_Z11_P1-001-3_BM_iso250new_ratio3_repro_01.txt
-0.000154648,-0.275536,-0.99671,0.0,1.61987e-07,0.146332,250.0,SR_TGA_0120_Z11_P1-001-3_BM_iso250new_ratio3_repro_02.txt
-0.000112821,-0.225022,-0.997395,0.0,9.74738e-08,0.105324,255.0,SR_TGA_0120_Z11_P1-001-3_BM_iso255_ratio1_repro_01.txt
-0.000842474,-0.2793,-0.996545,0.0,2.13544e-06,0.363975,255.0,SR_TGA_0120_Z11_P1-001-3_BM_iso255_ratio1_repro_02.txt
-0.00330136,-0.283057,-0.992789,6.18303e-249,2.43502e-05,0.4415,255.0,SR_TGA_0120_Z11_P1-001-3_BM_iso255_ratio2_repro_01.txt
-0.000584889,-0.286894,-0.996754,0.0,1.19796e-06,0.217326,255.0,SR_TGA_0120_Z11_P1-001-3_BM_iso255_ratio2_repro_02.txt
-0.000492448,-0.266726,-0.997184,0.0,8.55121e-07,0.21209,255.0,SR_TGA_0120_Z11_P1-001-3_BM_iso255_ratio3_repro_01.txt
-0.000148425,-0.263941,-0.997446,0.0,1.33758e-07,0.129069,255.0,SR_TGA_0120_Z11_P1-001-3_BM_iso255_ratio3_repro_02.txt