File: results/TGA/outputs_isothermal/Z13.csv
slope,intercept,r_value,p_value,std_err,C_rel,temperature,file
-0.00297838,-0.0619911,-0.999761,0.0,3.5342e-06,0.447608,230.0,SR_TGA_0121_Z13p_P1-001-3_BM_iso230_ratio_1_repro_01.txt
-0.00268039,-0.0625332,-0.999741,0.0,3.14731e-06,0.402464,230.0,SR_TGA_0121_Z13p_P1-001-3_BM_iso230_ratio_1_repro_02.txt
-0.00150607,-0.127852,-0.999456,0.0,1.93997e-06,0.211669,230.0,SR_TGA_0121_Z13p_P1-001-3_BM_iso230_ratio_2_repro_01.txt
-0.001707,-0.140733,-0.999468,0.0,2.32185e-06,0.216065,230.0,SR_TGA_0121_Z13p_P1-001-3_BM_iso230_ratio_2_repro_02.txt
-0.000303067,-0.173215,-0.998961,0.0,2.43604e-07,0.0871294,230.0,SR_TGA_0121_Z13p_P1-001-3_BM_iso230_ratio_3_repro_01.txt
-0.000865563,-0.156909,-0.999155,0.0,1.0558e-06,0.147243,230.0,SR_TGA_0121_Z13p_P1-001-3_BM_iso230_ratio_3_repro_02.txt
-0.00339394,-0.0768493,-0.999798,0.0,3.97882e-06,0.446921,235.0,SR_TGA_0121_Z13p_P1-001-3_BM_iso235_ratio_1_repro_01.txt
-0.00159703,-0.152348,-0.999159,0.0,2.64453e-06,0.198126,235.0,SR_TGA_0121_Z13p_P1-001-3_BM_iso235_ratio_1_repro_02.txt
-0.000683788,-0.184879,-0.998543,0.0,9.78131e-07,0.121371,235.0,SR_TGA_0121_Z13p_P1-001-3_BM_iso235_ratio_1_repro_03.txt
-0.00406078,-0.110415,-0.997702,6.40371e-285,1.77287e-05,0.446069,235.0,SR_TGA_0121_Z13p_P1-001-3_BM_iso235_ratio_2_repro_01.txt
-0.000411724,-0.153305,-0.999342,0.0,3.0567e-07,0.0804202,235.0,SR_TGA_0121_Z13p_P1-001-3_BM_iso235_ratio_2_repro_02.txt
-0.000410158,-0.197615,-0.998418,0.0,4.75632e-07,0.0977682,235.0,SR_TGA_0121_Z13p_P1-001-3_BM_iso235_ratio_3_repro_01.txt
-0.00705792,-0.108431,-0.99621,3.43994e-147,5.26498e-05,0.451256,240.0,SR_TGA_0121_Z13p_P1-001-3_BM_iso240_ratio_1_repro_01.txt
-0.00635089,-0.0996966,-0.998191,1.67017e-187,3.10258e-05,0.401469,240.0,SR_TGA_0121_Z13p_P1-001-3_BM_iso240_ratio_1_repro_02.txt
-0.00204491,-0.124434,-0.999259,0.0,3.58685e-06,0.196179,240.0,SR_TGA_0121_Z13p_P1-001-3_BM_iso240_ratio_2_repro_01.txt
-0.00220598,-0.152189,-0.999045,0.0,4.58811e-06,0.198497,240.0,SR_TGA_0121_Z13p_P1-001-3_BM_iso240_ratio_2_repro_02.txt
-0.001367,-0.174237,-0.99877,0.0,2.54514e-06,0.14777,240.0,SR_TGA_0121_Z13p_P1-001-3_BM_iso240_ratio_3_repro_01.txt
-0.00100647,-0.192303,-0.998237,0.0,1.92865e-06,0.13478,240.0,SR_TGA_0121_Z13p_P1-001-3_BM_iso240_ratio_3_repro_02.txt
-0.00752632,-0.140389,-0.994211,6.09161e-124,7.24636e-05,0.441539,245.0,SR_TGA_0121_Z13p_P1-001-3_BM_iso245_ratio_1_repro_01.txt
-0.00605227,-0.12812,-0.996406,2.61166e-171,4.09342e-05,0.417699,245.0,SR_TGA_0121_Z13p_P1-001-3_BM_iso245_ratio_1_repro_02.txt
-0.00568814,-0.131461,-0.997884,2.3683e-201,2.85918e-05,0.268121,245.0,SR_TGA_0121_Z13p_P1-001-3_BM_iso245_ratio_2_repro_01.txt
-0.00304097,-0.134839,-0.999153,0.0,7.00221e-06,0.20727,245.0,SR_TGA_0121_Z13p_P1-001-3_BM_iso245_ratio_2_repro_02.txt
-0.000379137,-0.250589,-0.996194,0.0,6.66787e-07,0.0871727,245.0,SR_TGA_0121_Z13p_P1-001-3_BM_iso245_ratio_2_repro_03.txt
-0.000753369,-0.200527,-0.998456,0.0,1.17234e-06,0.0948073,245.0,SR_TGA_0121_Z13p_P1-001-3_BM_iso245_ratio_3_repro_01.txt
-0.00792989,-0.124843,-0.996398,1.87942e-130,6.16126e-05,0.434077,250.0,SR_TGA_0121_Z13p_P1-001-3_BM_iso250_ratio_1_repro_01.txt
-0.00620034,-0.146792,-0.997024,4.34802e-171,3.88872e-05,0.416442,250.0,SR_TGA_0121_Z13p_P1-001-3_BM_iso250_ratio_1_repro_02.txt
-0.00363453,-0.153825,-0.998174,1e-323,1.35378e-05,0.198718,250.0,SR_TGA_0121_Z13p_P1-001-3_BM_iso250_ratio_2_repro_01.txt
-0.00181699,-0.22075,-0.997553,0.0,5.59522e-06,0.144208,250.0,SR_TGA_0121_Z13p_P1-001-3_BM_iso250_ratio_2_repro_02.txt
-0.00388297,-0.159462,-0.99845,1.26235e-310,1.37999e-05,0.216293,250.0,SR_TGA_0121_Z13p_P1-001-3_BM_iso250_ratio_2_repro_03.txt
-0.000883484,-0.181018,-0.998947,0.0,1.2239e-06,0.0912614,250.0,SR_TGA_0121_Z13p_P1-001-3_BM_iso250_ratio_3_repro_01.txt