File: results/TGA/outputs_isothermal/Z15.csv
slope,intercept,r_value,p_value,std_err,C_rel,temperature,file
-0.000108293,-0.122446,-0.999141,0.0,5.53833e-08,0.439764,240.0,SR_TGA_0122_FCC_P1-001-3_BM_iso240_ratio_1_repro_01.txt
-5.11872e-05,-0.0646516,-0.999606,0.0,1.99787e-08,0.200667,240.0,SR_TGA_0122_FCC_P1-001-3_BM_iso240_ratio_2_repro_01.txt
-2.2133e-05,-0.0498319,-0.999933,0.0,5.60674e-09,0.106709,240.0,SR_TGA_0122_FCC_P1-001-3_BM_iso240_ratio_3_repro_01.txt
-0.000137022,-0.0821995,-0.999863,0.0,2.7999e-08,0.428145,250.0,SR_TGA_0122_FCC_P1-001-3_BM_iso250_ratio_1_repro_01.txt
-3.22434e-05,-0.0705312,-0.999746,0.0,1.11191e-08,0.198096,250.0,SR_TGA_0122_FCC_P1-001-3_BM_iso250_ratio_2_repro_01.txt
-1.97916e-05,-0.0573099,-0.999973,0.0,3.35591e-09,0.108061,250.0,SR_TGA_0122_FCC_P1-001-3_BM_iso250_ratio_3_repro_01.txt
-0.0001714,-0.0696126,-0.999272,0.0,8.50821e-08,0.386649,260.0,SR_TGA_0122_FCC_P1-001-3_BM_iso260_ratio_1_repro_01.txt
-5.5367e-05,-0.0636605,-0.999901,0.0,1.06298e-08,0.190252,260.0,SR_TGA_0122_FCC_P1-001-3_BM_iso260_ratio_2_repro_01.txt
-2.95155e-05,-0.0547409,-0.999955,0.0,4.72926e-09,0.122443,260.0,SR_TGA_0122_FCC_P1-001-3_BM_iso260_ratio_3_repro_01.txt