File: results/TGA/outputs_isothermal/Z16.csv
slope,intercept,r_value,p_value,std_err,C_rel,temperature,file
-0.000141458,-0.115703,-0.999357,0.0,6.20442e-08,0.43747,240.0,SR_TGA_0123_FCCcr_P1-001-3_BM_iso240_ratio_1_repro_01.txt
-5.94987e-05,-0.0718985,-0.99949,0.0,2.55159e-08,0.205617,240.0,SR_TGA_0123_FCCcr_P1-001-3_BM_iso240_ratio_2_repro_01.txt
-2.4997e-05,-0.0462164,-0.999947,0.0,5.12487e-09,0.098388,240.0,SR_TGA_0123_FCCcr_P1-001-3_BM_iso240_ratio_3_repro_01.txt
-0.000265268,-0.0986448,-0.999978,0.0,2.77983e-08,0.449336,250.0,SR_TGA_0123_FCCcr_P1-001-3_BM_iso250_ratio_1_repro_01.txt
-0.000126108,-0.0733966,-0.99996,0.0,1.40088e-08,0.245379,250.0,SR_TGA_0123_FCCcr_P1-001-3_BM_iso250_ratio_1_repro_02.txt
-4.95339e-05,-0.0512409,-0.999872,0.0,1.13283e-08,0.101926,250.0,SR_TGA_0123_FCCcr_P1-001-3_BM_iso250_ratio_1_repro_03.txt
-0.000392936,-0.0697369,-0.999728,0.0,1.78155e-07,0.380696,260.0,SR_TGA_0123_FCCcr_P1-001-3_BM_iso260_ratio_1_repro_01.txt
-0.000154709,-0.086807,-0.999762,0.0,4.17498e-08,0.241641,260.0,SR_TGA_0123_FCCcr_P1-001-3_BM_iso260_ratio_2_repro_01.txt
-8.68707e-05,-0.043837,-0.999986,0.0,5.99019e-09,0.106432,260.0,SR_TGA_0123_FCCcr_P1-001-3_BM_iso260_ratio_3_repro_01.txt